#Intensity_unit=cps
#Attenuator_coefficient=1.0000
4.0000 5659.4422
4.0100 6065.8096
4.0200 5836.9360
4.0300 5551.3178
4.0400 5631.5496
4.0500 5857.5164
4.0600 5882.6966
4.0700 6254.3620
4.0800 5361.2366
4.0900 5354.1698
4.1000 5058.5316
4.1100 5250.4960
4.1200 5621.0876
4.1300 5814.4134
4.1400 5700.4370
4.1500 5031.0272
4.1600 5497.0856
4.1700 5680.2776
4.1800 5949.0728
4.1900 5734.4188
4.2000 5336.7732
4.2100 5363.5930
4.2200 5755.3518
4.2300 5735.9284
4.2400 5669.5918
4.2500 5597.3332
4.2600 5827.8392
4.2700 5248.9476
4.2800 5413.8418
4.2900 5263.9400
4.3000 5083.6888
4.3100 5152.5726
4.3200 5069.7214
4.3300 5228.3422
4.3400 5194.9228
4.3500 4935.1268
4.3600 5502.3300
4.3700 5273.0968
4.3800 5333.8832
4.3900 4642.6814
4.4000 4464.1302
4.4100 5327.0538
4.4200 4945.9218
4.4300 4598.2982
4.4400 4661.4736
4.4500 4993.8116
4.4600 5025.2854
4.4700 4928.7644
4.4800 4228.3838
4.4900 4687.0850
4.5000 4972.5046
4.5100 4982.2962
4.5200 5415.4546
4.5300 5188.5376
4.5400 5135.8556
4.5500 5350.3642
4.5600 4823.2234
4.5700 4537.6948
4.5800 4448.1644
4.5900 4628.5762
4.6000 4480.3858
4.6100 4993.3996
4.6200 5322.8988
4.6300 4353.2684
4.6400 4774.7686
4.6500 4555.3838
4.6600 4642.4214
4.6700 4865.1346
4.6800 4610.8072
4.6900 4509.6990
4.7000 4798.7860
4.7100 4630.5180
4.7200 4753.1178
4.7300 4850.1720
4.7400 4407.2270
4.7500 4632.1686
4.7600 4683.1254
4.7700 4033.8474
4.7800 4653.5654
4.7900 4707.4662
4.8000 5221.1208
4.8100 4898.1928
4.8200 4078.3794
4.8300 4264.9696
4.8400 4285.1826
4.8500 4187.6510
4.8600 4955.9748
4.8700 4492.9082
4.8800 4160.3098
4.8900 4873.6328
4.9000 4836.8882
4.9100 3950.3888
4.9200 4447.1126
4.9300 4069.8248
4.9400 4869.7514
4.9500 4478.9418
4.9600 4530.8726
4.9700 4400.6628
4.9800 4983.7590
4.9900 5276.1016
5.0000 4638.6210
5.0100 4447.9288
5.0200 5092.9800
5.0300 4038.2654
5.0400 4567.2176
5.0500 4599.1500
5.0600 4463.4242
5.0700 4466.8162
5.0800 4110.4568
5.0900 4248.2302
5.1000 4087.8328
5.1100 4453.4562
5.1200 4408.1136
5.1300 4401.0788
5.1400 4408.6472
5.1500 4245.5078
5.1600 4443.7520
5.1700 4337.3800
5.1800 3937.3644
5.1900 3669.1076
5.2000 4505.9484
5.2100 4719.6604
5.2200 4253.5358
5.2300 4538.2812
5.2400 4231.6228
5.2500 4057.7190
5.2600 4286.0956
5.2700 4041.1756
5.2800 4394.6544
5.2900 3801.8910
5.3000 4406.0832
5.3100 4211.4042
5.3200 4197.8046
5.3300 4355.8706
5.3400 4681.6126
5.3500 4296.8018
5.3600 3669.8210
5.3700 4104.2204
5.3800 3719.2614
5.3900 3941.0588
5.4000 4483.2276
5.4100 4100.9320
5.4200 3978.3248
5.4300 4111.6514
5.4400 4395.1588
5.4500 4525.8378
5.4600 4277.6718
5.4700 3866.8824
5.4800 3496.5190
5.4900 4002.9042
5.5000 4188.6442
5.5100 4482.6956
5.5200 3724.1308
5.5300 4041.5762
5.5400 4445.2662
5.5500 4076.9486
5.5600 3951.2288
5.5700 4024.3142
5.5800 3563.1440
5.5900 3579.4820
5.6000 4167.4482
5.6100 3743.7192
5.6200 3894.8566
5.6300 3435.6816
5.6400 3608.8312
5.6500 4138.6856
5.6600 3812.5982
5.6700 3890.3486
5.6800 4133.7326
5.6900 3757.1546
5.7000 3904.6684
5.7100 3503.6716
5.7200 3531.3536
5.7300 3527.8966
5.7400 4244.5356
5.7500 3934.3822
5.7600 3914.3876
5.7700 3777.6604
5.7800 3885.8964
5.7900 3890.9128
5.8000 3320.1892
5.8100 3401.5076
5.8200 3598.7442
5.8300 3557.4358
5.8400 3869.4280
5.8500 3483.6368
5.8600 3743.0552
5.8700 3801.5310
5.8800 3740.0834
5.8900 3746.9760
5.9000 3257.0152
5.9100 3500.5674
5.9200 3600.3412
5.9300 3353.6186
5.9400 3681.2256
5.9500 4070.3358
5.9600 3993.1248
5.9700 3470.4788
5.9800 3458.8990
5.9900 3311.5582
6.0000 3822.5664
6.0100 3993.5184
6.0200 3881.9000
6.0300 3356.9666
6.0400 3551.7702
6.0500 3593.9844
6.0600 4107.6166
6.0700 3306.8346
6.0800 3559.4244
6.0900 3469.9404
6.1000 3539.5884
6.1100 3400.2634
6.1200 3321.8694
6.1300 3512.2010
6.1400 3520.3908
6.1500 3806.0224
6.1600 3451.6414
6.1700 3499.2042
6.1800 3710.0158
6.1900 3480.8882
6.2000 3363.8070
6.2100 3084.8136
6.2200 3371.2816
6.2300 3489.6046
6.2400 3506.9956
6.2500 3384.8134
6.2600 3309.1074
6.2700 3472.6858
6.2800 3246.1672
6.2900 3573.6170
6.3000 3756.9458
6.3100 3209.9612
6.3200 3245.8776
6.3300 3144.0650
6.3400 3222.8094
6.3500 3284.1716
6.3600 3636.5586
6.3700 3252.5562
6.3800 3388.3154
6.3900 2883.9470
6.4000 3085.0154
6.4100 3196.2118
6.4200 3072.9222
6.4300 3746.9592
6.4400 3072.8274
6.4500 2806.8524
6.4600 3346.5604
6.4700 3260.1446
6.4800 3460.4950
6.4900 3071.0628
6.5000 3073.6808
6.5100 3127.5746
6.5200 3422.7842
6.5300 2942.7412
6.5400 3035.8066
6.5500 3110.3852
6.5600 2885.1720
6.5700 3349.0768
6.5800 3114.1766
6.5900 3071.5904
6.6000 3160.3584
6.6100 3215.1552
6.6200 2852.7822
6.6300 3622.1344
6.6400 3076.2054
6.6500 2964.8228
6.6600 3203.4658
6.6700 2959.0762
6.6800 3631.9756
6.6900 2855.8266
6.7000 3057.9564
6.7100 3384.4462
6.7200 3319.8038
6.7300 2941.8004
6.7400 3032.2128
6.7500 2997.1310
6.7600 3144.6854
6.7700 3339.4376
6.7800 2769.0226
6.7900 2968.3790
6.8000 2964.2102
6.8100 2750.4760
6.8200 3137.5168
6.8300 2927.1606
6.8400 3540.6552
6.8500 3003.7106
6.8600 2740.3902
6.8700 2634.0240
6.8800 2802.6990
6.8900 3298.9710
6.9000 3171.5014
6.9100 3527.8402
6.9200 2874.7582
6.9300 2922.9192
6.9400 2977.8122
6.9500 3417.3934
6.9600 3098.6146
6.9700 2901.4702
6.9800 2777.6874
6.9900 2765.2604
7.0000 2487.5320
7.0100 2970.2464
7.0200 3238.8220
7.0300 3101.9372
7.0400 2947.1164
7.0500 2979.0936
7.0600 2899.1298
7.0700 2971.4150
7.0800 3391.0902
7.0900 2617.9560
7.1000 2695.4738
7.1100 2673.9686
7.1200 3102.1742
7.1300 2960.4904
7.1400 2959.0460
7.1500 2517.6818
7.1600 2690.8414
7.1700 2584.2390
7.1800 2471.8864
7.1900 2557.0684
7.2000 2778.9282
7.2100 2672.1638
7.2200 2565.2848
7.2300 2627.9322
7.2400 3081.9104
7.2500 2767.5588
7.2600 2455.7472
7.2700 2310.1532
7.2800 2873.3086
7.2900 3244.3370
7.3000 2662.8690
7.3100 2570.9106
7.3200 2652.9360
7.3300 2548.9570
7.3400 2943.8764
7.3500 2815.4046
7.3600 2895.7342
7.3700 2511.0146
7.3800 3178.5672
7.3900 2621.6288
7.4000 2722.9208
7.4100 2531.2558
7.4200 2909.1748
7.4300 2412.4304
7.4400 2930.3184
7.4500 2622.4040
7.4600 2861.9138
7.4700 2217.3358
7.4800 2509.2600
7.4900 2678.7728
7.5000 2749.4130
7.5100 2669.6184
7.5200 2631.3658
7.5300 2852.6632
7.5400 3013.8810
7.5500 2545.9890
7.5600 2479.1186
7.5700 2891.6054
7.5800 2650.0512
7.5900 2535.9830
7.6000 2641.5624
7.6100 2563.2980
7.6200 2818.2398
7.6300 2560.1136
7.6400 2696.2126
7.6500 2751.5536
7.6600 2421.9096
7.6700 2260.1746
7.6800 2534.7702
7.6900 2394.2626
7.7000 2381.8716
7.7100 2613.8796
7.7200 2360.4754
7.7300 2649.5674
7.7400 2632.1998
7.7500 2445.5960
7.7600 2626.7350
7.7700 2454.4582
7.7800 2085.1394
7.7900 2433.0430
7.8000 2285.9922
7.8100 2492.3440
7.8200 2922.3656
7.8300 2684.9428
7.8400 2358.8664
7.8500 2453.2218
7.8600 2303.8226
7.8700 2421.1286
7.8800 2349.9504
7.8900 2135.0642
7.9000 2349.8078
7.9100 1983.3436
7.9200 2440.3962
7.9300 2244.1290
7.9400 2589.3184
7.9500 2390.5588
7.9600 2738.7174
7.9700 2344.3518
7.9800 2350.5854
7.9900 1670.3422
8.0000 2234.3404
8.0100 2287.3998
8.0200 2399.1906
8.0300 2472.0944
8.0400 2595.6866
8.0500 2737.0514
8.0600 2576.2500
8.0700 2453.4416
8.0800 2532.6698
8.0900 2536.3150
8.1000 2781.9516
8.1100 2687.4604
8.1200 2291.5540
8.1300 2565.9112
8.1400 2414.7476
8.1500 2764.7692
8.1600 2489.5006
8.1700 2307.3468
8.1800 2634.9314
8.1900 2722.9348
8.2000 2401.3756
8.2100 2881.9410
8.2200 2821.0554
8.2300 2580.1328
8.2400 2941.1492
8.2500 2982.6624
8.2600 3278.5940
8.2700 2586.6892
8.2800 2562.2946
8.2900 3177.2346
8.3000 2792.0388
8.3100 2633.1264
8.3200 2634.8524
8.3300 2743.4172
8.3400 2438.5200
8.3500 2690.1688
8.3600 2471.7736
8.3700 2467.7048
8.3800 2512.5920
8.3900 2159.5058
8.4000 2759.7340
8.4100 2352.2598
8.4200 2187.9112
8.4300 2676.1234
8.4400 2672.1914
8.4500 2352.4328
8.4600 2011.6142
8.4700 1857.2986
8.4800 2632.5198
8.4900 2430.2698
8.5000 2420.7820
8.5100 1848.8884
8.5200 2272.1028
8.5300 2177.5718
8.5400 2108.5808
8.5500 2552.6138
8.5600 2155.3470
8.5700 2348.9200
8.5800 2225.1348
8.5900 2026.0122
8.6000 2140.6102
8.6100 2328.7094
8.6200 2406.7218
8.6300 1905.0126
8.6400 2451.1494
8.6500 2105.3822
8.6600 1938.7078
8.6700 1764.1850
8.6800 2389.5828
8.6900 2372.5190
8.7000 2126.0738
8.7100 2075.3254
8.7200 2171.8844
8.7300 2318.1584
8.7400 2186.3526
8.7500 2524.0750
8.7600 2259.7346
8.7700 2639.3224
8.7800 2133.2970
8.7900 2198.2982
8.8000 2513.5852
8.8100 2066.5898
8.8200 1788.5622
8.8300 2001.3422
8.8400 1891.6956
8.8500 1574.4332
8.8600 1909.2882
8.8700 2151.9688
8.8800 1761.6362
8.8900 2179.8506
8.9000 1827.4392
8.9100 2024.5850
8.9200 2385.5400
8.9300 2174.2872
8.9400 2144.6436
8.9500 1941.4148
8.9600 1951.6774
8.9700 1910.7906
8.9800 1942.9936
8.9900 1897.3826
9.0000 1955.1340
9.0100 1736.2090
9.0200 2192.2612
9.0300 1898.9608
9.0400 2337.4786
9.0500 1881.3772
9.0600 2089.7158
9.0700 2070.3606
9.0800 2024.7508
9.0900 2213.1170
9.1000 1979.1622
9.1100 2284.4660
9.1200 2008.5386
9.1300 1590.4324
9.1400 1983.3124
9.1500 1570.1102
9.1600 2165.4624
9.1700 1891.8720
9.1800 2433.0244
9.1900 2313.3734
9.2000 2257.5688
9.2100 2253.3412
9.2200 1979.2842
9.2300 1690.3902
9.2400 2056.4784
9.2500 1888.7368
9.2600 1971.3810
9.2700 2044.0416
9.2800 1678.7204
9.2900 1917.8898
9.3000 2044.8492
9.3100 2096.0178
9.3200 1790.2368
9.3300 1443.9406
9.3400 1647.5622
9.3500 1741.3312
9.3600 1876.0094
9.3700 1652.8072
9.3800 1865.5078
9.3900 1842.2308
9.4000 1893.1610
9.4100 1957.3596
9.4200 1870.7852
9.4300 1980.7212
9.4400 1942.0934
9.4500 1582.4132
9.4600 1673.8760
9.4700 1699.2322
9.4800 1824.6400
9.4900 1814.2828
9.5000 2011.3408
9.5100 1960.9982
9.5200 1912.6042
9.5300 2001.4246
9.5400 2055.8182
9.5500 1867.1472
9.5600 1637.5636
9.5700 1724.2974
9.5800 1720.9236
9.5900 2231.8456
9.6000 1920.1600
9.6100 1861.1460
9.6200 1837.0426
9.6300 2524.1500
9.6400 2002.3218
9.6500 1974.5614
9.6600 1520.4138
9.6700 1740.4842
9.6800 1731.8834
9.6900 2024.0710
9.7000 1572.5042
9.7100 1898.9234
9.7200 1611.3680
9.7300 2192.3118
9.7400 1593.0330
9.7500 1833.9544
9.7600 1752.5638
9.7700 1790.9952
9.7800 1512.8576
9.7900 1971.1740
9.8000 1780.3230
9.8100 1687.9302
9.8200 1358.2690
9.8300 1815.9592
9.8400 1951.4260
9.8500 1551.6320
9.8600 1569.3192
9.8700 1861.4744
9.8800 1976.3822
9.8900 1491.1478
9.9000 1880.5162
9.9100 2098.3334
9.9200 1686.1360
9.9300 1931.6326
9.9400 1525.3842
9.9500 2072.0184
9.9600 1315.2418
9.9700 1684.2026
9.9800 2065.5972
9.9900 1575.6086
10.0000 1752.2190
10.0100 1267.3768
10.0200 1668.5252
10.0300 1786.0422
10.0400 1665.9340
10.0500 1731.1660
10.0600 1865.4596
10.0700 2069.5898
10.0800 1954.5178
10.0900 1780.9108
10.1000 1708.9594
10.1100 1934.1122
10.1200 1864.5166
10.1300 1552.3742
10.1400 2012.5558
10.1500 1624.8496
10.1600 1777.2886
10.1700 1542.5202
10.1800 1837.2338
10.1900 1797.6618
10.2000 1731.8732
10.2100 1663.0734
10.2200 1564.9914
10.2300 1220.0846
10.2400 1606.4890
10.2500 1755.0186
10.2600 1711.0092
10.2700 1621.1912
10.2800 1726.5966
10.2900 1740.9348
10.3000 1877.5364
10.3100 1904.6104
10.3200 1751.5606
10.3300 1634.4938
10.3400 1727.5980
10.3500 1705.4624
10.3600 1795.9086
10.3700 1683.3488
10.3800 1596.0920
10.3900 1673.9006
10.4000 1435.1632
10.4100 1649.5204
10.4200 1712.5408
10.4300 1367.4770
10.4400 1368.0734
10.4500 1560.7728
10.4600 1522.4432
10.4700 1580.0542
10.4800 1704.0776
10.4900 1678.4408
10.5000 1654.7664
10.5100 1704.9294
10.5200 2020.6818
10.5300 1543.7256
10.5400 1389.3868
10.5500 1613.6452
10.5600 1742.6428
10.5700 1715.1656
10.5800 1560.8668
10.5900 1450.4194
10.6000 1432.5084
10.6100 1583.8802
10.6200 1395.4662
10.6300 1393.2520
10.6400 1506.4962
10.6500 1619.7602
10.6600 1414.4134
10.6700 1758.4896
10.6800 1765.9656
10.6900 1654.7814
10.7000 1580.4174
10.7100 1705.2480
10.7200 1628.7284
10.7300 1381.3046
10.7400 1791.2872
10.7500 1877.5396
10.7600 1599.6328
10.7700 1405.4488
10.7800 1692.1724
10.7900 1575.6980
10.8000 1524.0426
10.8100 1482.4226
10.8200 1700.1782
10.8300 1643.1586
10.8400 1594.9134
10.8500 1427.9182
10.8600 1563.7622
10.8700 1835.1006
10.8800 1761.2782
10.8900 1253.1068
10.9000 1501.0094
10.9100 1661.4456
10.9200 1237.2748
10.9300 1120.4664
10.9400 1218.5740
10.9500 1857.5492
10.9600 1522.3794
10.9700 1605.5898
10.9800 1544.1234
10.9900 1635.0070
11.0000 1511.0424
11.0100 1314.3746
11.0200 1530.7802
11.0300 1263.5924
11.0400 1330.5648
11.0500 1561.4550
11.0600 1579.6288
11.0700 1637.3694
11.0800 1162.9624
11.0900 1246.3150
11.1000 1652.5508
11.1100 1428.7754
11.1200 1414.4642
11.1300 1770.8402
11.1400 1850.7728
11.1500 1852.4696
11.1600 1523.4294
11.1700 1556.0232
11.1800 1498.1720
11.1900 1563.0214
11.2000 1307.5604
11.2100 1338.1586
11.2200 1314.3488
11.2300 1439.2766
11.2400 1415.6196
11.2500 1376.1660
11.2600 1479.1642
11.2700 1439.2560
11.2800 1218.7758
11.2900 1390.2140
11.3000 1643.4906
11.3100 1193.5138
11.3200 1145.6198
11.3300 1373.3450
11.3400 1381.5054
11.3500 1123.3204
11.3600 1402.8046
11.3700 1652.0786
11.3800 1376.2896
11.3900 1176.1390
11.4000 1285.5416
11.4100 1280.8772
11.4200 1013.9842
11.4300 1532.1304
11.4400 1363.3700
11.4500 1794.6056
11.4600 1747.0980
11.4700 1418.2418
11.4800 1421.5606
11.4900 1295.1746
11.5000 1374.9724
11.5100 1562.3804
11.5200 1584.2732
11.5300 1650.5546
11.5400 1353.5462
11.5500 1392.8900
11.5600 1478.3678
11.5700 1207.4652
11.5800 1314.2042
11.5900 1451.9098
11.6000 1247.5814
11.6100 1127.2800
11.6200 1415.5926
11.6300 1541.7648
11.6400 1499.4982
11.6500 1334.1924
11.6600 1619.8280
11.6700 1484.1200
11.6800 1362.4468
11.6900 1584.9132
11.7000 1172.3624
11.7100 1224.6026
11.7200 1597.1084
11.7300 1285.9058
11.7400 1571.7990
11.7500 1487.6848
11.7600 1472.3498
11.7700 1458.9310
11.7800 1638.9480
11.7900 1492.9174
11.8000 1243.8722
11.8100 1326.2628
11.8200 1541.3032
11.8300 1540.4306
11.8400 1714.0670
11.8500 1551.8924
11.8600 1521.9128
11.8700 1827.6088
11.8800 1499.9554
11.8900 1426.3658
11.9000 1246.9042
11.9100 1115.0268
11.9200 1380.2636
11.9300 1625.2194
11.9400 1450.7082
11.9500 1756.0708
11.9600 1747.2718
11.9700 1600.3396
11.9800 1249.0830
11.9900 1517.5520
12.0000 1435.2952
12.0100 1472.4018
12.0200 1439.1932
12.0300 1369.3270
12.0400 1352.2724
12.0500 1411.0470
12.0600 1502.1714
12.0700 1332.8870
12.0800 1567.3154
12.0900 1252.9402
12.1000 1774.8998
12.1100 1575.7676
12.1200 1393.4980
12.1300 1197.6620
12.1400 1349.1958
12.1500 1475.2326
12.1600 1613.5008
12.1700 1499.2538
12.1800 1601.3526
12.1900 1390.2220
12.2000 1579.4476
12.2100 1372.2036
12.2200 1335.4644
12.2300 1322.5644
12.2400 1466.3164
12.2500 1323.9152
12.2600 1473.8104
12.2700 1334.9476
12.2800 1730.9980
12.2900 1420.2320
12.3000 1341.5864
12.3100 1798.0856
12.3200 1825.9274
12.3300 1245.9802
12.3400 1838.3076
12.3500 1438.6038
12.3600 1594.0780
12.3700 1805.8504
12.3800 1373.5706
12.3900 1502.2904
12.4000 1881.6968
12.4100 1496.9802
12.4200 1709.7140
12.4300 1724.1870
12.4400 1645.7004
12.4500 1562.7778
12.4600 1752.9614
12.4700 1867.7402
12.4800 1959.2236
12.4900 1814.1150
12.5000 1470.6358
12.5100 1709.5850
12.5200 2107.1774
12.5300 2285.4230
12.5400 1917.5836
12.5500 2401.0252
12.5600 2245.2032
12.5700 2413.0696
12.5800 2818.1696
12.5900 3023.1110
12.6000 3302.0862
12.6100 3545.6162
12.6200 3255.1272
12.6300 3812.3138
12.6400 4483.9290
12.6500 4158.9478
12.6600 4960.9350
12.6700 4510.8784
12.6800 5052.8468
12.6900 5382.9982
12.7000 5052.9042
12.7100 5259.2810
12.7200 5239.5096
12.7300 4974.9746
12.7400 4780.7968
12.7500 4650.8514
12.7600 4608.3440
12.7700 3753.0200
12.7800 3423.8522
12.7900 3544.5992
12.8000 3069.3464
12.8100 3188.8894
12.8200 3308.1254
12.8300 2740.3836
12.8400 2688.7194
12.8500 2675.6924
12.8600 2038.1524
12.8700 2205.4728
12.8800 1750.7110
12.8900 1739.4452
12.9000 1478.6162
12.9100 1562.0254
12.9200 1626.9808
12.9300 1514.2318
12.9400 1524.4398
12.9500 1201.4100
12.9600 1595.1958
12.9700 1613.7856
12.9800 1471.3132
12.9900 1593.6010
13.0000 1405.5466
13.0100 1446.4008
13.0200 1432.5166
13.0300 1350.1604
13.0400 1559.1850
13.0500 1692.7744
13.0600 1472.3810
13.0700 1565.8034
13.0800 1622.1484
13.0900 1450.1556
13.1000 1296.6324
13.1100 1157.8688
13.1200 1576.8452
13.1300 1365.3486
13.1400 1529.5928
13.1500 1366.1908
13.1600 1424.7502
13.1700 1442.7182
13.1800 1188.1186
13.1900 1342.2150
13.2000 1319.7598
13.2100 1402.2476
13.2200 1458.9768
13.2300 1177.9130
13.2400 1409.6516
13.2500 1299.7938
13.2600 1444.0066
13.2700 1210.3784
13.2800 1236.6736
13.2900 1626.1156
13.3000 1546.7648
13.3100 1257.1976
13.3200 1339.4800
13.3300 1435.6550
13.3400 1471.6444
13.3500 1272.2236
13.3600 1843.6974
13.3700 1924.4078
13.3800 1274.7756
13.3900 1249.3734
13.4000 1591.2084
13.4100 1286.4388
13.4200 1223.6910
13.4300 1431.7740
13.4400 1885.9676
13.4500 1668.0970
13.4600 1677.9542
13.4700 1261.8774
13.4800 1137.5894
13.4900 1675.4502
13.5000 1398.5762
13.5100 1687.8108
13.5200 1837.1528
13.5300 1450.9998
13.5400 1692.7064
13.5500 1563.4534
13.5600 1657.6976
13.5700 1547.3028
13.5800 1897.2476
13.5900 1659.5316
13.6000 1850.4956
13.6100 1861.1118
13.6200 1586.5044
13.6300 1830.5540
13.6400 1898.9150
13.6500 1852.3738
13.6600 2234.4172
13.6700 1814.1828
13.6800 2065.2492
13.6900 2026.7700
13.7000 1743.0000
13.7100 1754.8414
13.7200 1346.0926
13.7300 1897.7550
13.7400 1765.8476
13.7500 1921.0932
13.7600 1866.1474
13.7700 1558.6312
13.7800 1984.1954
13.7900 1529.6056
13.8000 1552.6538
13.8100 1747.9608
13.8200 1893.9762
13.8300 1660.0682
13.8400 2314.0068
13.8500 1978.6584
13.8600 2206.1496
13.8700 2351.7726
13.8800 2210.0776
13.8900 1940.5798
13.9000 2346.0440
13.9100 2438.7492
13.9200 2880.8158
13.9300 2484.5162
13.9400 2942.6506
13.9500 3216.6178
13.9600 3054.3104
13.9700 3188.2548
13.9800 3573.9438
13.9900 3449.8484
14.0000 3938.1684
14.0100 3674.9830
14.0200 3960.3012
14.0300 4539.6688
14.0400 4810.0530
14.0500 5248.5550
14.0600 6289.8102
14.0700 6498.8428
14.0800 7097.7484
14.0900 8584.5480
14.1000 9847.7742
14.1100 11314.5244
14.1200 13178.7750
14.1300 15142.2698
14.1400 16758.9224
14.1500 19491.8212
14.1600 21196.5596
14.1700 24135.2050
14.1800 27176.6378
14.1900 28263.9668
14.2000 28331.8014
14.2100 28652.4374
14.2200 29146.1548
14.2300 28082.4300
14.2400 26670.7804
14.2500 24596.2098
14.2600 22176.1882
14.2700 18801.4974
14.2800 16437.2558
14.2900 13260.0158
14.3000 10601.5788
14.3100 9587.5376
14.3200 8090.3564
14.3300 6874.1186
14.3400 5783.1666
14.3500 5694.1742
14.3600 5028.0808
14.3700 4828.6204
14.3800 4117.6196
14.3900 3818.9258
14.4000 3265.6258
14.4100 3421.5292
14.4200 2924.6976
14.4300 3089.7000
14.4400 3263.0928
14.4500 2609.9380
14.4600 2647.7878
14.4700 2425.8412
14.4800 2558.4340
14.4900 1858.9158
14.5000 1908.9530
14.5100 1706.5200
14.5200 1632.1820
14.5300 1616.4394
14.5400 2030.6050
14.5500 1584.4736
14.5600 1539.7402
14.5700 1906.9978
14.5800 1807.6260
14.5900 1491.7620
14.6000 1868.1348
14.6100 1640.0152
14.6200 1662.0924
14.6300 1269.9840
14.6400 1704.1192
14.6500 1712.2454
14.6600 1341.8192
14.6700 1168.8108
14.6800 1493.1482
14.6900 1767.0064
14.7000 1538.9100
14.7100 1380.0030
14.7200 1224.2462
14.7300 1415.0876
14.7400 1081.3012
14.7500 1174.1888
14.7600 1228.5354
14.7700 1211.1704
14.7800 1605.1018
14.7900 1246.3582
