#Intensity_unit=cps
#Attenuator_coefficient=1.0000
4.0000 5401.0722
4.0100 5515.9450
4.0200 5866.7790
4.0300 6132.4106
4.0400 5815.2838
4.0500 5551.0116
4.0600 5352.7058
4.0700 4958.2108
4.0800 5521.6970
4.0900 5437.2522
4.1000 5329.7368
4.1100 5482.2704
4.1200 5276.9796
4.1300 5458.6950
4.1400 5227.7018
4.1500 5678.7440
4.1600 5607.3486
4.1700 5361.0250
4.1800 5689.8626
4.1900 5456.1402
4.2000 5577.5274
4.2100 5354.5374
4.2200 5212.2502
4.2300 5431.2922
4.2400 5042.2282
4.2500 4927.4088
4.2600 5086.6974
4.2700 5156.6926
4.2800 4654.6702
4.2900 4982.0420
4.3000 5626.5024
4.3100 5018.0024
4.3200 4856.1778
4.3300 4949.8784
4.3400 5167.8762
4.3500 5193.8558
4.3600 5084.4614
4.3700 4993.5846
4.3800 4908.4950
4.3900 5229.0852
4.4000 4765.6444
4.4100 5431.9164
4.4200 4744.6986
4.4300 5168.8330
4.4400 4850.9278
4.4500 4514.3936
4.4600 4410.8190
4.4700 4899.8382
4.4800 5149.3382
4.4900 5059.4518
4.5000 5097.4472
4.5100 4954.1998
4.5200 5253.5380
4.5300 5141.5644
4.5400 5039.2416
4.5500 4503.9916
4.5600 4139.2918
4.5700 4535.8704
4.5800 4802.8218
4.5900 4584.6608
4.6000 4550.8200
4.6100 5035.7478
4.6200 4557.9132
4.6300 4266.8946
4.6400 4547.9232
4.6500 4844.0252
4.6600 4759.9126
4.6700 5182.1732
4.6800 4866.2038
4.6900 4821.5104
4.7000 4497.0612
4.7100 4844.7088
4.7200 4551.2894
4.7300 4698.6358
4.7400 4863.9846
4.7500 4768.4666
4.7600 4988.7268
4.7700 4373.9522
4.7800 4682.2672
4.7900 4756.9886
4.8000 4658.9426
4.8100 4553.9098
4.8200 4290.2970
4.8300 4322.6690
4.8400 4309.4640
4.8500 4463.0148
4.8600 5147.3404
4.8700 4163.5544
4.8800 4167.0172
4.8900 4768.5720
4.9000 4752.2420
4.9100 4901.0534
4.9200 4511.5932
4.9300 4099.5702
4.9400 4586.3338
4.9500 4218.7912
4.9600 4196.7732
4.9700 4325.1012
4.9800 4414.1260
4.9900 4407.8700
5.0000 4982.0058
5.0100 4040.9020
5.0200 3694.9090
5.0300 4218.6614
5.0400 4334.8018
5.0500 4764.4510
5.0600 4808.9864
5.0700 4429.1758
5.0800 4687.6892
5.0900 4812.5900
5.1000 4419.8136
5.1100 4591.4082
5.1200 4421.4778
5.1300 4287.8434
5.1400 4061.5916
5.1500 3776.6952
5.1600 3716.0158
5.1700 3772.0732
5.1800 4212.5066
5.1900 4189.5396
5.2000 3674.9824
5.2100 3664.5000
5.2200 4222.9516
5.2300 4203.8226
5.2400 4090.5810
5.2500 4448.8484
5.2600 4272.2560
5.2700 4236.8982
5.2800 4306.3756
5.2900 3916.8870
5.3000 4008.2150
5.3100 4207.7958
5.3200 4533.6492
5.3300 4102.7446
5.3400 4287.5326
5.3500 3971.7674
5.3600 4082.0002
5.3700 3925.1476
5.3800 4199.2338
5.3900 3828.5598
5.4000 4209.4490
5.4100 4138.7560
5.4200 3865.1164
5.4300 4217.6104
5.4400 3877.1978
5.4500 3808.2680
5.4600 4391.9342
5.4700 4043.9276
5.4800 3630.4092
5.4900 3757.7444
5.5000 4272.7366
5.5100 4437.7116
5.5200 3632.8160
5.5300 4209.0410
5.5400 3961.8306
5.5500 4229.3636
5.5600 4012.5184
5.5700 3940.8244
5.5800 3918.6432
5.5900 3963.8364
5.6000 4413.0594
5.6100 4246.7600
5.6200 3715.4542
5.6300 3434.7598
5.6400 3835.5724
5.6500 4027.8348
5.6600 3708.8050
5.6700 3891.6512
5.6800 3452.5026
5.6900 4523.5992
5.7000 4168.5806
5.7100 4096.8870
5.7200 3915.0226
5.7300 3709.5682
5.7400 3506.8744
5.7500 3731.8598
5.7600 3932.9450
5.7700 3648.4126
5.7800 3453.7490
5.7900 3602.3128
5.8000 4056.8772
5.8100 3807.3982
5.8200 3294.0898
5.8300 3692.8700
5.8400 3548.9222
5.8500 3638.2882
5.8600 4007.6128
5.8700 3568.0760
5.8800 3592.2308
5.8900 3213.0522
5.9000 3600.5934
5.9100 3514.2558
5.9200 3621.7306
5.9300 3083.9230
5.9400 3242.4294
5.9500 3501.4168
5.9600 3456.1322
5.9700 4049.8470
5.9800 4093.0104
5.9900 3584.6824
6.0000 4054.1826
6.0100 3619.0362
6.0200 3295.4312
6.0300 4151.4924
6.0400 3285.9680
6.0500 3368.4692
6.0600 3129.7122
6.0700 3445.9164
6.0800 3426.2808
6.0900 3528.4380
6.1000 2979.6104
6.1100 3665.7034
6.1200 3809.6884
6.1300 3404.9406
6.1400 3275.7780
6.1500 3990.0630
6.1600 3228.9610
6.1700 3497.5240
6.1800 3996.0900
6.1900 3584.5362
6.2000 3368.4342
6.2100 3506.6290
6.2200 3337.5618
6.2300 3418.2610
6.2400 3527.1932
6.2500 3694.7344
6.2600 3517.3218
6.2700 3688.5916
6.2800 3343.2262
6.2900 3500.5620
6.3000 3333.7554
6.3100 3204.7992
6.3200 3310.0202
6.3300 3232.3032
6.3400 3501.2698
6.3500 3449.4486
6.3600 3137.3662
6.3700 3497.0848
6.3800 3628.9634
6.3900 3587.6864
6.4000 3192.5092
6.4100 3717.7834
6.4200 3115.5088
6.4300 3204.4242
6.4400 3451.0898
6.4500 3526.4710
6.4600 3066.9668
6.4700 3399.6862
6.4800 3892.4400
6.4900 3400.4366
6.5000 3421.9128
6.5100 3314.2098
6.5200 3049.2704
6.5300 3084.6022
6.5400 3322.8356
6.5500 3200.0208
6.5600 3234.1800
6.5700 3125.9608
6.5800 3068.4290
6.5900 3889.8488
6.6000 3305.0810
6.6100 3092.7930
6.6200 3426.8488
6.6300 3223.9130
6.6400 3153.8276
6.6500 3274.0164
6.6600 2839.5646
6.6700 2980.8556
6.6800 3249.8466
6.6900 2914.7964
6.7000 3076.9172
6.7100 3439.9646
6.7200 2922.7172
6.7300 2815.3012
6.7400 2803.8950
6.7500 3517.8042
6.7600 3394.0524
6.7700 3014.9686
6.7800 3252.9358
6.7900 3285.7902
6.8000 2691.3380
6.8100 2934.6952
6.8200 3136.1346
6.8300 3082.1968
6.8400 2833.2528
6.8500 2681.8430
6.8600 3042.9678
6.8700 3021.0110
6.8800 2850.3350
6.8900 2891.5840
6.9000 2783.9716
6.9100 3008.1594
6.9200 2925.4036
6.9300 2833.3432
6.9400 2888.1312
6.9500 3239.5538
6.9600 2647.9118
6.9700 2965.9312
6.9800 2865.4898
6.9900 2645.9048
7.0000 3060.3724
7.0100 2978.9568
7.0200 2556.4492
7.0300 3297.0078
7.0400 2994.1740
7.0500 3265.0418
7.0600 2364.7008
7.0700 2967.9502
7.0800 3249.6506
7.0900 3204.0902
7.1000 2775.6304
7.1100 3293.1180
7.1200 2888.6556
7.1300 2583.2018
7.1400 2512.8774
7.1500 3245.9658
7.1600 2654.8304
7.1700 3070.5282
7.1800 3314.4928
7.1900 2711.3184
7.2000 2935.5570
7.2100 2991.4696
7.2200 2821.5822
7.2300 2914.5518
7.2400 2532.3170
7.2500 2922.6248
7.2600 2659.2402
7.2700 2602.8142
7.2800 2509.6484
7.2900 2694.7484
7.3000 2647.0296
7.3100 2594.7798
7.3200 2777.1898
7.3300 2717.4710
7.3400 2648.5400
7.3500 2521.6776
7.3600 2871.7644
7.3700 2597.9872
7.3800 2694.7414
7.3900 2723.2102
7.4000 2777.6680
7.4100 3087.1898
7.4200 2448.4212
7.4300 2521.3128
7.4400 2504.1832
7.4500 2398.8584
7.4600 2494.9460
7.4700 2646.7140
7.4800 2735.8558
7.4900 2896.1318
7.5000 2801.0612
7.5100 2408.6004
7.5200 2752.0798
7.5300 2764.8128
7.5400 2211.7758
7.5500 2302.0154
7.5600 2578.0634
7.5700 2597.6904
7.5800 2851.7768
7.5900 2745.3992
7.6000 2390.2882
7.6100 2746.5934
7.6200 2829.5702
7.6300 2600.8774
7.6400 2365.7282
7.6500 3035.7712
7.6600 2568.1274
7.6700 2219.3014
7.6800 2230.1316
7.6900 2190.4846
7.7000 2602.3250
7.7100 2532.2598
7.7200 2312.5608
7.7300 2597.5734
7.7400 3011.7028
7.7500 2503.1934
7.7600 2278.5266
7.7700 2827.1448
7.7800 2278.1038
7.7900 2420.8618
7.8000 2630.3110
7.8100 2444.8682
7.8200 2644.6192
7.8300 2849.0160
7.8400 2401.7568
7.8500 2832.8346
7.8600 2641.6370
7.8700 2492.7182
7.8800 2940.1524
7.8900 2562.2208
7.9000 2576.4292
7.9100 2648.3080
7.9200 2468.2226
7.9300 2403.1004
7.9400 2637.0254
7.9500 2822.5690
7.9600 2620.5048
7.9700 2085.7124
7.9800 2619.1558
7.9900 2154.2888
8.0000 2601.6432
8.0100 2435.2134
8.0200 2842.1928
8.0300 2305.8494
8.0400 2220.6148
8.0500 2835.8596
8.0600 2644.6818
8.0700 2527.1294
8.0800 2480.6898
8.0900 2668.0662
8.1000 2461.0494
8.1100 2688.1442
8.1200 2414.9000
8.1300 2363.0374
8.1400 2599.1796
8.1500 2311.3366
8.1600 1981.3106
8.1700 2393.6930
8.1800 2204.0172
8.1900 2494.7190
8.2000 2192.8298
8.2100 2495.7944
8.2200 2100.3458
8.2300 2086.5288
8.2400 2514.3708
8.2500 2266.7272
8.2600 2460.1440
8.2700 2223.2654
8.2800 2413.7192
8.2900 2411.6242
8.3000 2669.4750
8.3100 2292.8064
8.3200 2420.3310
8.3300 2056.2140
8.3400 2260.9402
8.3500 2343.3802
8.3600 1996.2930
8.3700 2251.2614
8.3800 2281.0222
8.3900 2308.3806
8.4000 1911.1964
8.4100 2241.0780
8.4200 2030.1958
8.4300 2312.2156
8.4400 2476.4724
8.4500 2284.4610
8.4600 2184.4348
8.4700 2421.1182
8.4800 2549.3784
8.4900 2501.1110
8.5000 2061.9056
8.5100 2659.0080
8.5200 2235.4742
8.5300 2427.2904
8.5400 2467.2180
8.5500 2249.5420
8.5600 2010.1328
8.5700 2225.7596
8.5800 2246.9676
8.5900 2477.3480
8.6000 1951.1768
8.6100 2304.6542
8.6200 1804.5880
8.6300 2146.9552
8.6400 2102.4526
8.6500 2227.4872
8.6600 2582.6662
8.6700 2196.4842
8.6800 2553.0826
8.6900 2043.6838
8.7000 2356.7980
8.7100 2058.7496
8.7200 2187.0588
8.7300 1783.5592
8.7400 1993.8658
8.7500 2053.5402
8.7600 2149.2274
8.7700 2257.4790
8.7800 2026.2180
8.7900 2312.7096
8.8000 2313.8150
8.8100 2022.0332
8.8200 1725.2440
8.8300 2192.3852
8.8400 2140.5462
8.8500 1929.4866
8.8600 2097.4284
8.8700 2012.2558
8.8800 2024.0052
8.8900 2125.3524
8.9000 2367.7808
8.9100 1941.7474
8.9200 1927.5600
8.9300 1925.7652
8.9400 1914.9720
8.9500 1759.0288
8.9600 2287.1514
8.9700 2355.3972
8.9800 2216.9828
8.9900 1956.0068
9.0000 1978.8202
9.0100 1864.3294
9.0200 2156.4960
9.0300 1942.5454
9.0400 2059.6530
9.0500 2086.5730
9.0600 1850.3808
9.0700 1702.4612
9.0800 1792.6600
9.0900 2015.0136
9.1000 1675.5758
9.1100 1808.0366
9.1200 2258.2136
9.1300 1839.5460
9.1400 1993.8326
9.1500 1715.1146
9.1600 1750.5874
9.1700 2118.1888
9.1800 2176.2878
9.1900 1970.6956
9.2000 1568.0786
9.2100 2002.6140
9.2200 1948.4872
9.2300 1840.7956
9.2400 1961.9628
9.2500 1822.1798
9.2600 1901.8102
9.2700 1753.3012
9.2800 1848.9796
9.2900 1925.3612
9.3000 2029.5444
9.3100 1830.1790
9.3200 1724.0238
9.3300 1965.4862
9.3400 1889.7352
9.3500 1699.1560
9.3600 1919.3734
9.3700 2009.5794
9.3800 1645.5050
9.3900 2030.1588
9.4000 1818.3908
9.4100 1920.3468
9.4200 1937.3936
9.4300 2424.1550
9.4400 1922.5674
9.4500 1624.8550
9.4600 1717.0548
9.4700 1843.8744
9.4800 1660.6288
9.4900 1730.7758
9.5000 1963.6536
9.5100 1802.8442
9.5200 1747.9080
9.5300 1720.1770
9.5400 1901.5572
9.5500 1753.9710
9.5600 1917.8276
9.5700 1672.0170
9.5800 2002.9340
9.5900 1848.1858
9.6000 2162.8906
9.6100 2094.3398
9.6200 1433.9352
9.6300 1815.1274
9.6400 2453.6062
9.6500 1579.3116
9.6600 2153.7928
9.6700 1853.4686
9.6800 1932.7730
9.6900 1795.8338
9.7000 1725.1554
9.7100 1916.4870
9.7200 2174.9786
9.7300 1750.6538
9.7400 1439.2384
9.7500 1445.6228
9.7600 1700.8548
9.7700 2159.5550
9.7800 1973.4576
9.7900 1741.9480
9.8000 1949.5024
9.8100 1831.3256
9.8200 1927.6706
9.8300 1618.9904
9.8400 1724.3722
9.8500 1353.4682
9.8600 2044.6436
9.8700 1720.4692
9.8800 1878.1864
9.8900 1993.9722
9.9000 1836.0446
9.9100 1532.8174
9.9200 1530.0304
9.9300 1544.1154
9.9400 2044.1118
9.9500 1614.0896
9.9600 1892.4336
9.9700 1633.1780
9.9800 1615.0558
9.9900 1895.5404
10.0000 1602.7454
10.0100 1726.0392
10.0200 1670.5166
10.0300 1487.3756
10.0400 1521.1954
10.0500 1807.3304
10.0600 1692.1858
10.0700 1514.6800
10.0800 1983.0500
10.0900 1564.6812
10.1000 1275.9658
10.1100 1655.3138
10.1200 1781.4028
10.1300 1821.7476
10.1400 1763.3374
10.1500 1477.3586
10.1600 1331.1066
10.1700 1758.8604
10.1800 1904.8906
10.1900 2064.6916
10.2000 1633.2642
10.2100 1682.8100
10.2200 1492.9384
10.2300 1738.0522
10.2400 1657.0786
10.2500 1508.0402
10.2600 1767.1980
10.2700 1778.6386
10.2800 1483.5916
10.2900 1500.2998
10.3000 1634.8628
10.3100 1759.5768
10.3200 1539.7716
10.3300 1761.3640
10.3400 1659.0662
10.3500 1594.2532
10.3600 1665.3634
10.3700 1514.5754
10.3800 2170.7300
10.3900 1268.7188
10.4000 1476.7754
10.4100 2153.2666
10.4200 1932.8626
10.4300 1321.0156
10.4400 1642.4978
10.4500 1696.3010
10.4600 1453.2690
10.4700 1622.0722
10.4800 1313.0360
10.4900 1690.3846
10.5000 1950.6978
10.5100 1836.0550
10.5200 1643.0880
10.5300 1634.3558
10.5400 1371.5340
10.5500 1535.2334
10.5600 1299.8470
10.5700 1339.2304
10.5800 1364.0240
10.5900 1317.4630
10.6000 1534.8566
10.6100 1614.3414
10.6200 1695.4694
10.6300 1367.2770
10.6400 1335.7144
10.6500 1581.4030
10.6600 1413.5880
10.6700 1419.7954
10.6800 1560.0722
10.6900 1430.8566
10.7000 1729.4616
10.7100 1544.5196
10.7200 1332.6922
10.7300 1372.5686
10.7400 1456.4502
10.7500 1414.1928
10.7600 1604.5252
10.7700 1223.5198
10.7800 1553.3406
10.7900 1656.4798
10.8000 1480.7466
10.8100 1857.4424
10.8200 1664.4360
10.8300 1573.8762
10.8400 1752.3928
10.8500 1392.0730
10.8600 1133.8256
10.8700 1555.8630
10.8800 1337.9526
10.8900 1436.4476
10.9000 1395.7806
10.9100 1378.7958
10.9200 1573.0668
10.9300 1544.3130
10.9400 1498.1160
10.9500 1238.2822
10.9600 1415.3256
10.9700 1559.6908
10.9800 1496.4010
10.9900 1713.7902
11.0000 1559.0248
11.0100 1513.0706
11.0200 1441.4994
11.0300 1784.4652
11.0400 1250.3954
11.0500 1361.9488
11.0600 1310.7860
11.0700 1593.2426
11.0800 1719.4070
11.0900 1476.5848
11.1000 1480.7160
11.1100 1291.7030
11.1200 1435.1506
11.1300 1305.5716
11.1400 1662.4894
11.1500 1542.8508
11.1600 1361.7738
11.1700 1116.1768
11.1800 1729.1136
11.1900 1564.3606
11.2000 1535.8338
11.2100 1493.5044
11.2200 1708.3642
11.2300 1309.8806
11.2400 1591.6048
11.2500 1282.3512
11.2600 1160.0294
11.2700 1346.8252
11.2800 1232.0456
11.2900 1581.7698
11.3000 1379.4756
11.3100 1633.0462
11.3200 1448.2134
11.3300 1733.5376
11.3400 1434.3996
11.3500 1784.1260
11.3600 1572.4318
11.3700 1258.6630
11.3800 1228.7512
11.3900 1343.0818
11.4000 1785.9678
11.4100 1697.7616
11.4200 1189.0250
11.4300 1492.7932
11.4400 1405.1202
11.4500 1337.3124
11.4600 1320.2984
11.4700 1790.4404
11.4800 1673.3222
11.4900 1238.5948
11.5000 1487.2464
11.5100 1599.6590
11.5200 1868.5092
11.5300 1189.3322
11.5400 1461.7782
11.5500 1347.8606
11.5600 1469.1468
11.5700 1305.9070
11.5800 1292.2986
11.5900 1755.6266
11.6000 1720.4524
11.6100 1442.5484
11.6200 1569.5112
11.6300 1602.7714
11.6400 1280.4228
11.6500 1347.0802
11.6600 1607.9098
11.6700 1259.6032
11.6800 1368.8092
11.6900 1151.7560
11.7000 1388.1984
11.7100 1322.0462
11.7200 1757.7628
11.7300 1500.8964
11.7400 1466.7090
11.7500 1659.7774
11.7600 1289.1958
11.7700 1659.5994
11.7800 1570.9664
11.7900 1253.7502
11.8000 1353.4482
11.8100 1567.8144
11.8200 1436.9880
11.8300 1256.3444
11.8400 1388.4048
11.8500 1624.5896
11.8600 1450.5552
11.8700 1270.8066
11.8800 1307.7406
11.8900 1518.6120
11.9000 1617.6168
11.9100 1410.2294
11.9200 1530.8280
11.9300 1565.1232
11.9400 1330.7610
11.9500 1600.4622
11.9600 1647.6502
11.9700 1221.4660
11.9800 1364.9734
11.9900 1547.4302
12.0000 1492.9664
12.0100 1506.1856
12.0200 1172.7096
12.0300 1331.3482
12.0400 1384.0418
12.0500 1380.6550
12.0600 1259.0844
12.0700 1301.2476
12.0800 1721.5154
12.0900 1513.7186
12.1000 1040.9056
12.1100 1526.0178
12.1200 1222.8046
12.1300 1199.1176
12.1400 1338.3242
12.1500 1212.6234
12.1600 1715.1500
12.1700 1465.7670
12.1800 1253.4684
12.1900 1082.0810
12.2000 1414.2950
12.2100 1514.5040
12.2200 1723.8096
12.2300 1257.3568
12.2400 1411.0182
12.2500 1418.8614
12.2600 1372.4554
12.2700 1349.0438
12.2800 1528.0110
12.2900 1339.8822
12.3000 1415.0962
12.3100 1433.4042
12.3200 1332.1968
12.3300 1473.4138
12.3400 1133.6548
12.3500 1136.8804
12.3600 1432.3474
12.3700 1185.2962
12.3800 1518.4804
12.3900 1362.5848
12.4000 1395.5432
12.4100 1113.7720
12.4200 1230.5942
12.4300 1430.8316
12.4400 1270.7560
12.4500 1258.0516
12.4600 1359.1594
12.4700 1008.6376
12.4800 1475.2068
12.4900 1331.3532
12.5000 1413.5052
12.5100 1093.7280
12.5200 1336.9806
12.5300 1527.5446
12.5400 1400.7746
12.5500 1515.1054
12.5600 1400.1286
12.5700 1148.6812
12.5800 1450.2480
12.5900 1473.1756
12.6000 1043.9080
12.6100 1169.1820
12.6200 1447.9670
12.6300 1013.9182
12.6400 1242.5112
12.6500 1215.7030
12.6600 1142.6206
12.6700 1143.0028
12.6800 1198.0336
12.6900 1179.6410
12.7000 1431.2662
12.7100 1125.5216
12.7200 1353.9904
12.7300 1200.3156
12.7400 1241.3866
12.7500 1317.5754
12.7600 1514.9116
12.7700 1700.1646
12.7800 1699.8734
12.7900 1334.5826
12.8000 1397.2788
12.8100 1517.9020
12.8200 1097.3186
12.8300 1091.8680
12.8400 1516.4658
12.8500 1479.0346
12.8600 1605.3384
12.8700 1045.5844
12.8800 1627.7522
12.8900 1548.2334
12.9000 1306.7864
12.9100 1186.8162
12.9200 1326.7968
12.9300 1336.3148
12.9400 1366.0312
12.9500 1421.2028
12.9600 1269.5148
12.9700 1256.9892
12.9800 1520.3918
12.9900 1105.7610
13.0000 1035.2206
13.0100 1186.5198
13.0200 1234.1946
13.0300 1340.4544
13.0400 1622.1336
13.0500 1453.5494
13.0600 1588.6192
13.0700 1351.0226
13.0800 1358.3678
13.0900 1168.9134
13.1000 1133.2514
13.1100 1265.8180
13.1200 1427.7102
13.1300 1532.0170
13.1400 1343.6566
13.1500 1507.1336
13.1600 1402.9798
13.1700 1472.8056
13.1800 1290.6890
13.1900 1437.1370
13.2000 1470.4872
13.2100 1404.7090
13.2200 1523.8062
13.2300 1302.5128
13.2400 1444.7456
13.2500 1242.4998
13.2600 1357.2124
13.2700 1590.6970
13.2800 1438.1758
13.2900 1112.1650
13.3000 1747.8770
13.3100 1564.7094
13.3200 1457.1582
13.3300 1499.8106
13.3400 1399.8512
13.3500 1174.3186
13.3600 1609.4154
13.3700 1418.8560
13.3800 1276.4064
13.3900 1540.3056
13.4000 1323.0532
13.4100 1145.7418
13.4200 1499.6926
13.4300 2146.6696
13.4400 1407.8946
13.4500 1494.5314
13.4600 1617.5980
13.4700 1336.8264
13.4800 1396.9176
13.4900 1592.3330
13.5000 1678.2666
13.5100 1663.2592
13.5200 1130.4730
13.5300 1399.7048
13.5400 1652.5918
13.5500 1934.6866
13.5600 1911.5990
13.5700 1991.0664
13.5800 1754.8082
13.5900 1912.7666
13.6000 2059.9418
13.6100 2017.9714
13.6200 2101.8072
13.6300 1963.7892
13.6400 1699.0516
13.6500 2050.5490
13.6600 1787.9058
13.6700 1611.9754
13.6800 2085.8528
13.6900 2004.7688
13.7000 1763.6924
13.7100 1862.5162
13.7200 1844.7800
13.7300 2020.1260
13.7400 2149.9626
13.7500 1938.4248
13.7600 2213.3378
13.7700 2068.0048
13.7800 1982.3856
13.7900 1723.1396
13.8000 1937.1078
13.8100 1669.3978
13.8200 2111.4334
13.8300 2004.4120
13.8400 2480.8692
13.8500 1929.1750
13.8600 2019.0214
13.8700 2152.6444
13.8800 2505.0594
13.8900 2633.4094
13.9000 2467.5568
13.9100 2615.7904
13.9200 2349.9046
13.9300 3148.7758
13.9400 3053.5204
13.9500 3386.0224
13.9600 3128.6524
13.9700 3504.1714
13.9800 3692.5226
13.9900 3851.6446
14.0000 4078.5570
14.0100 4586.6414
14.0200 4717.2094
14.0300 4806.1926
14.0400 5411.2778
14.0500 6081.2520
14.0600 6922.6298
14.0700 6616.9194
14.0800 7638.2116
14.0900 8764.5346
14.1000 9522.9960
14.1100 11150.6418
14.1200 12766.7674
14.1300 14209.0372
14.1400 15905.5552
14.1500 17669.1284
14.1600 20457.2794
14.1700 20837.8112
14.1800 24270.2840
14.1900 26344.2586
14.2000 27447.6990
14.2100 28313.9058
14.2200 29221.2484
14.2300 28166.0990
14.2400 27280.1128
14.2500 25248.6674
14.2600 25456.2886
14.2700 22067.5618
14.2800 18668.8578
14.2900 16230.4240
14.3000 14171.1538
14.3100 11732.8838
14.3200 10631.6692
14.3300 8523.2972
14.3400 7789.5264
14.3500 7008.9706
14.3600 6103.0410
14.3700 5585.8180
14.3800 4979.6066
14.3900 4636.4496
14.4000 4855.1040
14.4100 4304.3060
14.4200 4315.2318
14.4300 3654.9088
14.4400 3520.6958
14.4500 3391.5772
14.4600 3167.7468
14.4700 2630.9038
14.4800 2367.1918
14.4900 2410.4554
14.5000 2371.4836
14.5100 1868.7094
14.5200 1852.7398
14.5300 1948.6962
14.5400 2171.2952
14.5500 1513.9940
14.5600 1821.6622
14.5700 2040.3500
14.5800 1984.0104
14.5900 1603.6544
14.6000 1748.9904
14.6100 1553.2918
14.6200 1501.5664
14.6300 1739.8368
14.6400 1436.1566
14.6500 1564.1400
14.6600 1560.7628
14.6700 1352.5166
14.6800 1678.3546
14.6900 1416.6106
14.7000 1515.6842
14.7100 1538.0888
14.7200 1450.7390
14.7300 1382.3144
14.7400 1502.8042
14.7500 1672.4840
14.7600 1539.7828
14.7700 1287.2874
14.7800 1444.2680
14.7900 1545.1062
