#Intensity_unit=cps
#Attenuator_coefficient=1.0000
4.0000 7668.9188
4.0100 7473.3048
4.0200 7473.2604
4.0300 7518.6772
4.0400 7118.6076
4.0500 7186.7426
4.0600 7306.4092
4.0700 6996.1008
4.0800 6811.0840
4.0900 6831.5008
4.1000 7051.0798
4.1100 7054.5954
4.1200 7008.8034
4.1300 6976.0294
4.1400 7022.7946
4.1500 6956.4148
4.1600 6862.0544
4.1700 6747.7254
4.1800 6792.0766
4.1900 6808.5312
4.2000 6721.8084
4.2100 6700.9852
4.2200 6687.9512
4.2300 6650.2518
4.2400 6531.7678
4.2500 6552.2568
4.2600 6624.0820
4.2700 6608.5362
4.2800 6710.9664
4.2900 6751.5294
4.3000 6594.5856
4.3100 6320.9838
4.3200 6229.1982
4.3300 6336.1390
4.3400 6142.2104
4.3500 6171.4020
4.3600 6368.8080
4.3700 6637.6684
4.3800 6789.6596
4.3900 6733.9218
4.4000 6431.1070
4.4100 6635.7014
4.4200 6725.9374
4.4300 6558.5988
4.4400 6527.3168
4.4500 6504.8624
4.4600 6476.3926
4.4700 6452.6190
4.4800 6384.0856
4.4900 6343.2684
4.5000 6396.7672
4.5100 6460.5082
4.5200 6257.3720
4.5300 5844.7550
4.5400 6198.7248
4.5500 6257.4428
4.5600 6123.4004
4.5700 6454.3010
4.5800 6466.6198
4.5900 6435.5804
4.6000 6647.1080
4.6100 6225.3698
4.6200 6014.5248
4.6300 6320.9986
4.6400 6245.2514
4.6500 6029.0680
4.6600 5851.3326
4.6700 6055.5730
4.6800 6103.4484
4.6900 6093.4708
4.7000 6177.5310
4.7100 6072.8750
4.7200 6047.3810
4.7300 6189.5090
4.7400 5916.2914
4.7500 5717.9804
4.7600 5728.8330
4.7700 5993.9652
4.7800 6206.9300
4.7900 6254.2440
4.8000 5990.2384
4.8100 5903.1458
4.8200 5875.1308
4.8300 5826.9602
4.8400 5776.0284
4.8500 5913.8250
4.8600 6180.4556
4.8700 6110.2814
4.8800 5728.9388
4.8900 5456.2012
4.9000 5977.7318
4.9100 5887.4262
4.9200 5622.7132
4.9300 5541.8300
4.9400 5600.3490
4.9500 5798.4920
4.9600 6028.6962
4.9700 5775.6068
4.9800 5701.5614
4.9900 5720.6334
5.0000 5491.1758
5.0100 5634.4066
5.0200 5778.6322
5.0300 5604.4658
5.0400 5764.2528
5.0500 5917.3498
5.0600 5908.0902
5.0700 5701.9038
5.0800 5575.1698
5.0900 5545.9590
5.1000 5558.0632
5.1100 5516.5196
5.1200 5424.9898
5.1300 5310.1028
5.1400 5539.6800
5.1500 5740.0634
5.1600 5730.5502
5.1700 5575.5570
5.1800 5679.4282
5.1900 5959.7672
5.2000 5489.5472
5.2100 5362.5138
5.2200 5436.1456
5.2300 5579.0440
5.2400 5491.2990
5.2500 5438.7232
5.2600 5567.2744
5.2700 5745.8842
5.2800 5704.4780
5.2900 5507.5500
5.3000 5568.5928
5.3100 5636.7112
5.3200 5565.1230
5.3300 5173.6034
5.3400 5156.6380
5.3500 5308.7300
5.3600 5489.4282
5.3700 5251.7680
5.3800 5148.7478
5.3900 5233.2128
5.4000 5262.4502
5.4100 5001.3876
5.4200 4797.7432
5.4300 5273.4334
5.4400 5401.5844
5.4500 5334.7000
5.4600 5206.2286
5.4700 5195.3160
5.4800 5099.4004
5.4900 4938.6128
5.5000 5134.0978
5.5100 5330.9576
5.5200 5445.0008
5.5300 5405.5002
5.5400 5406.0786
5.5500 5352.3788
5.5600 5158.7412
5.5700 5125.6252
5.5800 5177.9444
5.5900 5245.8024
5.6000 5101.1760
5.6100 5118.0318
5.6200 5252.9734
5.6300 5276.2930
5.6400 5293.7800
5.6500 5243.8706
5.6600 5070.8516
5.6700 5298.0412
5.6800 5343.2530
5.6900 4986.0032
5.7000 4782.2906
5.7100 4940.3798
5.7200 5256.6024
5.7300 5104.1224
5.7400 5098.9262
5.7500 5079.7632
5.7600 4801.3224
5.7700 4865.5324
5.7800 4950.6562
5.7900 4880.8120
5.8000 4756.2082
5.8100 4739.1114
5.8200 4791.2308
5.8300 4674.2472
5.8400 4927.3352
5.8500 5215.5594
5.8600 5006.8730
5.8700 4890.8738
5.8800 4799.1384
5.8900 4684.1050
5.9000 4642.9978
5.9100 4806.2260
5.9200 5044.3426
5.9300 4714.5534
5.9400 4435.4722
5.9500 4319.5266
5.9600 4452.9866
5.9700 4557.0526
5.9800 4838.9918
5.9900 5380.4922
6.0000 4940.2018
6.0100 4722.6538
6.0200 4966.2826
6.0300 4822.7814
6.0400 4727.5844
6.0500 4709.6384
6.0600 4395.3562
6.0700 4424.3780
6.0800 4626.8586
6.0900 4892.1738
6.1000 4818.7806
6.1100 4681.4178
6.1200 4605.1452
6.1300 4675.5610
6.1400 4584.5220
6.1500 4438.0676
6.1600 4588.2838
6.1700 4609.5358
6.1800 4549.3734
6.1900 4489.2462
6.2000 4651.5792
6.2100 4640.4892
6.2200 4334.0724
6.2300 4606.9352
6.2400 4719.2860
6.2500 4613.0762
6.2600 4358.8500
6.2700 4289.3468
6.2800 4329.1946
6.2900 4384.7366
6.3000 4454.5472
6.3100 4527.7736
6.3200 4598.4304
6.3300 4661.6994
6.3400 4802.6326
6.3500 4947.6938
6.3600 4793.5358
6.3700 4512.9694
6.3800 4278.0532
6.3900 4304.0472
6.4000 4504.0706
6.4100 4611.3180
6.4200 4497.4228
6.4300 4403.0976
6.4400 4460.1970
6.4500 4598.1384
6.4600 4408.0256
6.4700 4366.6718
6.4800 4377.4816
6.4900 4201.2064
6.5000 4200.8832
6.5100 4269.7098
6.5200 4323.7238
6.5300 4319.6534
6.5400 4447.3354
6.5500 4667.9174
6.5600 4502.8662
6.5700 4194.0522
6.5800 3975.9064
6.5900 4213.3506
6.6000 4113.4592
6.6100 3978.0930
6.6200 4091.9576
6.6300 4177.1870
6.6400 4318.2118
6.6500 4480.5634
6.6600 4285.8318
6.6700 4111.2944
6.6800 4037.5018
6.6900 4106.6786
6.7000 4024.3642
6.7100 3955.1936
6.7200 4069.9982
6.7300 3984.0770
6.7400 3813.7636
6.7500 3688.6948
6.7600 4064.3334
6.7700 4332.8024
6.7800 4317.2308
6.7900 3852.9904
6.8000 4034.9818
6.8100 4379.5944
6.8200 4278.1322
6.8300 4517.3600
6.8400 4607.8720
6.8500 4297.5596
6.8600 4031.6336
6.8700 4059.4248
6.8800 4259.7064
6.8900 4079.5392
6.9000 3857.7836
6.9100 3694.8728
6.9200 3843.6758
6.9300 3910.4282
6.9400 3999.8660
6.9500 4116.8198
6.9600 3849.5010
6.9700 3700.6440
6.9800 3723.4840
6.9900 3577.5264
7.0000 3663.3862
7.0100 3847.3276
7.0200 3854.8998
7.0300 3773.5168
7.0400 3712.6196
7.0500 3753.8762
7.0600 3875.1638
7.0700 4089.7600
7.0800 4345.9116
7.0900 4255.4276
7.1000 3983.2398
7.1100 3693.6450
7.1200 3678.6206
7.1300 3580.5320
7.1400 3481.5602
7.1500 3482.4506
7.1600 3611.5020
7.1700 3841.7082
7.1800 4076.5056
7.1900 3847.4736
7.2000 3783.5122
7.2100 3840.8126
7.2200 3699.1384
7.2300 3739.9958
7.2400 3740.6792
7.2500 3463.4146
7.2600 3494.8850
7.2700 3676.4804
7.2800 3894.7614
7.2900 3750.3128
7.3000 3616.9474
7.3100 3580.6872
7.3200 3674.6912
7.3300 3714.4996
7.3400 3760.3792
7.3500 3877.7456
7.3600 3622.8828
7.3700 3472.1102
7.3800 3634.8566
7.3900 3582.4132
7.4000 3561.4314
7.4100 3590.9576
7.4200 3544.1912
7.4300 3466.7250
7.4400 3427.9452
7.4500 3514.9274
7.4600 3548.0776
7.4700 3639.5708
7.4800 3825.2900
7.4900 3692.3582
7.5000 3634.7964
7.5100 3719.8570
7.5200 3775.0372
7.5300 3588.7658
7.5400 3348.2220
7.5500 3372.6978
7.5600 3347.1318
7.5700 3401.2362
7.5800 3599.5692
7.5900 3343.0878
7.6000 3266.0972
7.6100 3444.4796
7.6200 3246.7298
7.6300 3177.2174
7.6400 3278.9724
7.6500 3526.6668
7.6600 3620.6232
7.6700 3561.3522
7.6800 3361.3850
7.6900 3437.3058
7.7000 3531.2956
7.7100 3558.0206
7.7200 3604.6900
7.7300 3630.1260
7.7400 3585.5832
7.7500 3370.9426
7.7600 3471.5846
7.7700 3648.5014
7.7800 3398.2360
7.7900 3102.6054
7.8000 3107.7322
7.8100 3480.2502
7.8200 3311.2404
7.8300 3174.3464
7.8400 3183.2850
7.8500 3339.3030
7.8600 3301.1126
7.8700 3176.9696
7.8800 3117.2702
7.8900 3266.1412
7.9000 3285.4596
7.9100 3097.1766
7.9200 3547.4526
7.9300 3600.7680
7.9400 3251.4020
7.9500 3170.3314
7.9600 3196.6478
7.9700 3242.1466
7.9800 3227.7248
7.9900 3044.6436
8.0000 2954.5118
8.0100 3114.0862
8.0200 3257.4404
8.0300 3348.1692
8.0400 3412.0298
8.0500 3575.1096
8.0600 3521.1402
8.0700 3352.0250
8.0800 3264.0170
8.0900 3309.8368
8.1000 3379.6456
8.1100 3400.5850
8.1200 3365.4180
8.1300 3399.2948
8.1400 3478.6410
8.1500 3347.4216
8.1600 3408.7008
8.1700 3489.7154
8.1800 3174.7314
8.1900 3244.8238
8.2000 3402.8364
8.2100 3368.7678
8.2200 3156.8852
8.2300 3161.5364
8.2400 3435.3366
8.2500 3385.0986
8.2600 3478.8940
8.2700 3543.5056
8.2800 3013.7596
8.2900 3144.1914
8.3000 3404.8986
8.3100 3277.8490
8.3200 3213.2594
8.3300 3122.3936
8.3400 3017.9576
8.3500 3250.4344
8.3600 3106.0746
8.3700 2763.2256
8.3800 3024.1236
8.3900 3180.2086
8.4000 3183.3998
8.4100 3033.5494
8.4200 3072.0998
8.4300 3199.6954
8.4400 3325.6318
8.4500 3154.2878
8.4600 2932.2542
8.4700 2749.1536
8.4800 2702.6542
8.4900 2823.3996
8.5000 2933.8582
8.5100 2812.5514
8.5200 2968.4810
8.5300 3072.2578
8.5400 2947.1954
8.5500 3029.0832
8.5600 3031.7476
8.5700 2948.9496
8.5800 3053.6810
8.5900 3192.0272
8.6000 3308.3568
8.6100 3330.5494
8.6200 3094.9218
8.6300 2913.5310
8.6400 3013.8950
8.6500 3180.8382
8.6600 3070.7372
8.6700 2706.3446
8.6800 2709.2890
8.6900 2782.4844
8.7000 2865.4558
8.7100 2938.0862
8.7200 2945.6942
8.7300 2960.2184
8.7400 3033.1680
8.7500 3011.2836
8.7600 2895.5818
8.7700 2758.4810
8.7800 2980.4034
8.7900 3171.3768
8.8000 3271.0630
8.8100 2773.1458
8.8200 2833.3750
8.8300 3025.9766
8.8400 3002.1546
8.8500 2917.1112
8.8600 2857.5018
8.8700 2873.2244
8.8800 3011.9530
8.8900 2976.8390
8.9000 2801.6828
8.9100 2702.5794
8.9200 2737.1292
8.9300 2838.4896
8.9400 2934.0602
8.9500 2851.1378
8.9600 2811.0296
8.9700 2908.8540
8.9800 3076.1912
8.9900 3135.6628
9.0000 3058.9348
9.0100 2790.8096
9.0200 2964.4522
9.0300 3267.3132
9.0400 3227.6346
9.0500 3019.7614
9.0600 2810.5552
9.0700 2713.0594
9.0800 2834.1500
9.0900 2850.4184
9.1000 2755.5840
9.1100 2847.1912
9.1200 2829.3836
9.1300 2732.5454
9.1400 2643.7166
9.1500 2740.9584
9.1600 2877.7448
9.1700 2978.3448
9.1800 3097.7746
9.1900 3225.3846
9.2000 3285.1632
9.2100 2980.0924
9.2200 2843.6546
9.2300 2815.2482
9.2400 2672.6250
9.2500 2698.6868
9.2600 2785.6864
9.2700 2832.0030
9.2800 2731.1816
9.2900 2715.4518
9.3000 2837.1834
9.3100 2877.5294
9.3200 2902.8662
9.3300 2908.3628
9.3400 2854.5820
9.3500 2884.4334
9.3600 2916.5840
9.3700 2890.4394
9.3800 3157.5368
9.3900 3282.0066
9.4000 3090.9592
9.4100 2859.8292
9.4200 2769.4412
9.4300 2783.1770
9.4400 2739.8250
9.4500 2720.9572
9.4600 2665.3470
9.4700 2513.7388
9.4800 2729.9542
9.4900 2882.1998
9.5000 2778.8992
9.5100 2788.5584
9.5200 2828.6196
9.5300 2847.0738
9.5400 2746.5444
9.5500 2674.7238
9.5600 2655.5552
9.5700 2713.3098
9.5800 2770.7174
9.5900 2735.0622
9.6000 2572.6066
9.6100 2594.4002
9.6200 2650.1066
9.6300 2703.9248
9.6400 2777.7468
9.6500 2882.8732
9.6600 2975.0298
9.6700 2641.3130
9.6800 2531.4036
9.6900 2556.0062
9.7000 2695.0876
9.7100 2734.4576
9.7200 2657.7482
9.7300 2540.9006
9.7400 2736.4234
9.7500 3008.5244
9.7600 3167.6298
9.7700 2926.1110
9.7800 3143.2100
9.7900 3491.7864
9.8000 3690.1708
9.8100 3804.5540
9.8200 3778.6166
9.8300 3629.5438
9.8400 4111.2854
9.8500 4590.3462
9.8600 4973.4222
9.8700 5064.4064
9.8800 5114.5390
9.8900 5143.0548
9.9000 5131.0480
9.9100 5002.4694
9.9200 4771.0484
9.9300 4479.1076
9.9400 4397.4834
9.9500 4333.1130
9.9600 4328.4388
9.9700 4596.0744
9.9800 4452.0584
9.9900 4312.0052
10.0000 4678.7292
10.0100 4895.2280
10.0200 5044.5892
10.0300 5164.6052
10.0400 5076.5904
10.0500 4865.3356
10.0600 4568.4524
10.0700 4222.6698
10.0800 3853.0034
10.0900 3544.3560
10.1000 3426.8428
10.1100 3419.8334
10.1200 3304.0054
10.1300 2966.0830
10.1400 2724.4954
10.1500 2601.2706
10.1600 2589.7242
10.1700 2649.4584
10.1800 2403.0474
10.1900 2191.7806
10.2000 2571.5884
10.2100 2593.7788
10.2200 2495.6800
10.2300 2471.8646
10.2400 2645.6900
10.2500 2558.7950
10.2600 2194.0186
10.2700 2132.7290
10.2800 2300.0364
10.2900 2550.3116
10.3000 2666.3426
10.3100 2563.3712
10.3200 2407.8072
10.3300 2326.9646
10.3400 2320.1622
10.3500 2358.1602
10.3600 2441.1998
10.3700 2598.0496
10.3800 2558.6012
10.3900 2436.9174
10.4000 2545.8056
10.4100 2550.3068
10.4200 2430.4164
10.4300 2184.6448
10.4400 2176.6448
10.4500 2296.0206
10.4600 2451.9140
10.4700 2349.5514
10.4800 2338.2152
10.4900 2423.2790
10.5000 2459.3388
10.5100 2413.6220
10.5200 2353.8338
10.5300 2418.9336
10.5400 2566.4868
10.5500 2515.7888
10.5600 2218.1116
10.5700 2538.9082
10.5800 2626.6854
10.5900 2402.4430
10.6000 2184.2372
10.6100 2170.1330
10.6200 2234.1342
10.6300 2235.9536
10.6400 2590.9422
10.6500 2767.6582
10.6600 2473.2852
10.6700 2316.1042
10.6800 2262.4842
10.6900 2277.6158
10.7000 2236.4780
10.7100 2326.4392
10.7200 2406.6328
10.7300 2255.4946
10.7400 2378.7816
10.7500 2430.0594
10.7600 2208.7356
10.7700 2424.8858
10.7800 2445.7112
10.7900 2204.0444
10.8000 2287.6220
10.8100 2301.2298
10.8200 2256.2882
10.8300 2262.4684
10.8400 2234.7728
10.8500 2211.6696
10.8600 2226.6322
10.8700 2454.8002
10.8800 2529.2316
10.8900 2383.5042
10.9000 2227.0432
10.9100 2231.4830
10.9200 2302.9824
10.9300 2207.7996
10.9400 2231.3176
10.9500 2277.1098
10.9600 2248.4504
10.9700 2289.9264
10.9800 2312.3560
10.9900 2280.1588
11.0000 2238.4020
11.0100 2256.2988
11.0200 2295.8230
11.0300 2235.0532
11.0400 2145.6604
11.0500 2156.2474
11.0600 2384.0292
11.0700 2208.7362
11.0800 2100.0308
11.0900 2263.5076
11.1000 2322.1184
11.1100 2439.1666
11.1200 2530.5892
11.1300 2235.4728
11.1400 2129.7602
11.1500 2130.5502
11.1600 2088.2898
11.1700 2135.9304
11.1800 2209.2146
11.1900 2277.1976
11.2000 2378.4558
11.2100 2412.2520
11.2200 2378.8786
11.2300 2368.9220
11.2400 2204.4940
11.2500 1986.1166
11.2600 1888.8860
11.2700 1967.3732
11.2800 2061.5052
11.2900 2075.4732
11.3000 2126.7248
11.3100 2137.6614
11.3200 2138.4644
11.3300 2354.0546
11.3400 2281.7426
11.3500 2092.6578
11.3600 2181.1218
11.3700 2228.2372
11.3800 2232.7642
11.3900 2214.1068
11.4000 2303.2048
11.4100 2419.1112
11.4200 2500.8954
11.4300 2401.1154
11.4400 2321.5388
11.4500 2202.9348
11.4600 1854.7740
11.4700 2025.2870
11.4800 2295.0556
11.4900 2262.0460
11.5000 2242.2254
11.5100 2221.5624
11.5200 2190.2430
11.5300 2154.3608
11.5400 2230.1832
11.5500 2362.6450
11.5600 2430.8092
11.5700 2433.1510
11.5800 2411.9178
11.5900 2388.1464
11.6000 2332.6160
11.6100 2419.8326
11.6200 2692.5128
11.6300 2705.3212
11.6400 2777.3132
11.6500 2961.3340
11.6600 3211.5176
11.6700 3414.1772
11.6800 3490.9630
11.6900 3341.5138
11.7000 3491.4944
11.7100 3565.7320
11.7200 3368.7594
11.7300 3104.5624
11.7400 3007.0340
11.7500 2979.3128
11.7600 2627.9692
11.7700 2493.4146
11.7800 2485.2054
11.7900 2416.3014
11.8000 2536.8068
11.8100 2542.6002
11.8200 2271.3442
11.8300 2458.0274
11.8400 2511.4398
11.8500 2330.9598
11.8600 2284.7994
11.8700 2335.7480
11.8800 2397.2910
11.8900 2336.2772
11.9000 2314.5072
11.9100 2283.5742
11.9200 2205.8500
11.9300 2217.3296
11.9400 2276.2334
11.9500 2331.2716
11.9600 2205.6396
11.9700 2177.4074
11.9800 2192.2094
11.9900 2055.6188
12.0000 2044.7504
12.0100 2115.0334
12.0200 2219.0150
12.0300 2242.9608
12.0400 2238.6380
12.0500 2211.4278
12.0600 2087.6448
12.0700 2086.7546
12.0800 2176.0588
12.0900 2192.7200
12.1000 2145.0778
12.1100 2103.0910
12.1200 2135.7430
12.1300 2117.2352
12.1400 2167.4636
12.1500 2298.4680
12.1600 2130.3804
12.1700 2086.7500
12.1800 2181.1206
12.1900 2195.1360
12.2000 2256.9842
12.2100 2330.0676
12.2200 2360.3502
12.2300 2477.4284
12.2400 2481.9124
12.2500 2265.7306
12.2600 2108.7086
12.2700 2045.0288
12.2800 2048.0962
12.2900 2005.1358
12.3000 2139.6472
12.3100 2293.5280
12.3200 2211.2442
12.3300 2310.8936
12.3400 2339.0268
12.3500 2118.3500
12.3600 1937.7404
12.3700 1941.7798
12.3800 2143.8514
12.3900 2396.5116
12.4000 2460.2364
12.4100 2411.9468
12.4200 2199.5602
12.4300 2291.4794
12.4400 2393.9712
12.4500 2323.8208
12.4600 2405.0626
12.4700 2506.9596
12.4800 2579.5182
12.4900 2616.2986
12.5000 2712.8260
12.5100 2816.7990
12.5200 2798.0728
12.5300 2980.3114
12.5400 3166.0624
12.5500 3153.8084
12.5600 3061.2092
12.5700 3092.1254
12.5800 3285.6494
12.5900 3427.3048
12.6000 3576.3362
12.6100 3789.2580
12.6200 4133.9544
12.6300 4417.5060
12.6400 4630.4494
12.6500 4773.9370
12.6600 5056.2882
12.6700 5369.8990
12.6800 5702.6402
12.6900 6287.1434
12.7000 6226.4124
12.7100 5698.1888
12.7200 5703.8788
12.7300 5514.9266
12.7400 5233.3480
12.7500 5065.8752
12.7600 4940.9358
12.7700 4855.1316
12.7800 4783.5194
12.7900 4597.3420
12.8000 4418.9896
12.8100 4226.7252
12.8200 3838.6872
12.8300 3588.2696
12.8400 3447.9204
12.8500 3353.0750
12.8600 3304.9212
12.8700 3291.4358
12.8800 3291.1094
12.8900 3128.0110
12.9000 3007.0008
12.9100 2963.9750
12.9200 2886.0624
12.9300 2998.6924
12.9400 3063.8150
12.9500 2635.3884
12.9600 2639.4742
12.9700 2771.6190
12.9800 2804.3704
12.9900 3010.2178
13.0000 3099.3448
13.0100 3084.0778
13.0200 3540.9930
13.0300 3897.6240
13.0400 4142.6130
13.0500 4422.4798
13.0600 4741.1820
13.0700 5076.4344
13.0800 5415.1682
13.0900 5779.9800
13.1000 5929.8422
13.1100 5797.3648
13.1200 5714.5950
13.1300 5420.8546
13.1400 5006.8466
13.1500 4770.9046
13.1600 4242.9108
13.1700 3839.2296
13.1800 4028.5962
13.1900 3744.2064
13.2000 3383.9876
13.2100 3118.8548
13.2200 2749.6078
13.2300 2738.0770
13.2400 2894.2942
13.2500 2425.9676
13.2600 2379.2844
13.2700 2533.8228
13.2800 2508.9554
13.2900 2288.7866
13.3000 2066.4492
13.3100 1970.6396
13.3200 2087.9478
13.3300 2206.5864
13.3400 2275.2092
13.3500 2300.1910
13.3600 2179.1526
13.3700 2097.3382
13.3800 2327.8028
13.3900 2165.3424
13.4000 1996.9908
13.4100 2060.2774
13.4200 1940.0658
13.4300 1937.4504
13.4400 2080.0240
13.4500 1994.9890
13.4600 2092.5046
13.4700 2254.7314
13.4800 2243.2188
13.4900 2364.6602
13.5000 2458.3494
13.5100 2388.4036
13.5200 2324.5730
13.5300 2385.7968
13.5400 2570.8008
13.5500 2642.4106
13.5600 2468.7348
13.5700 2277.0706
13.5800 2548.4754
13.5900 2563.4946
13.6000 2538.1386
13.6100 2688.4944
13.6200 2724.9932
13.6300 2675.0870
13.6400 2578.8546
13.6500 2618.5640
13.6600 2668.7268
13.6700 2666.8524
13.6800 2515.8974
13.6900 2532.0290
13.7000 2592.7688
13.7100 2544.8254
13.7200 2359.9660
13.7300 2252.1060
13.7400 2328.7990
13.7500 2513.8192
13.7600 2502.0782
13.7700 2409.5022
13.7800 2732.6658
13.7900 2722.1862
13.8000 2568.9352
13.8100 2537.9338
13.8200 2442.1832
13.8300 2472.6468
13.8400 2709.4292
13.8500 2721.1640
13.8600 2811.7708
13.8700 2967.2028
13.8800 2886.4214
13.8900 3142.0562
13.9000 3485.4086
13.9100 3488.9294
13.9200 3496.4574
13.9300 3547.0172
13.9400 3633.3976
13.9500 3518.7610
13.9600 3703.6674
13.9700 4227.6866
13.9800 4619.0964
13.9900 4647.6786
14.0000 4553.1534
14.0100 4765.0502
14.0200 5290.0696
14.0300 5812.4598
14.0400 6133.9716
14.0500 6713.6474
14.0600 7248.8382
14.0700 7728.4628
14.0800 8609.4624
14.0900 9708.4768
14.1000 11060.7494
14.1100 12888.2844
14.1200 14871.3196
14.1300 16940.6790
14.1400 19067.2872
14.1500 21037.0646
14.1600 23031.4880
14.1700 25014.1072
14.1800 26392.2200
14.1900 27346.9768
14.2000 27936.4116
14.2100 28096.1894
14.2200 27944.5068
14.2300 27125.4536
14.2400 25092.6718
14.2500 23131.6142
14.2600 21083.3170
14.2700 18731.1136
14.2800 15523.9186
14.2900 12905.9936
14.3000 11292.4448
14.3100 9432.2692
14.3200 8266.4612
14.3300 7260.0860
14.3400 6186.4136
14.3500 5506.2632
14.3600 5200.5126
14.3700 5219.6208
14.3800 4826.4846
14.3900 4484.8028
14.4000 4335.1324
14.4100 4453.4740
14.4200 4241.0324
14.4300 3804.9016
14.4400 3342.4236
14.4500 3090.2390
14.4600 3049.9472
14.4700 3224.5034
14.4800 2998.1726
14.4900 2835.2906
14.5000 2782.7260
14.5100 2658.1104
14.5200 2558.2586
14.5300 2490.8778
14.5400 2447.2858
14.5500 2234.4100
14.5600 2160.2022
14.5700 2436.5708
14.5800 2330.0286
14.5900 2318.4176
14.6000 2446.8778
14.6100 2122.3468
14.6200 2003.9542
14.6300 2095.9472
14.6400 2247.7748
14.6500 2384.4070
14.6600 2437.6032
14.6700 2348.0342
14.6800 2246.4046
14.6900 2130.2594
14.7000 2020.1006
14.7100 2041.2330
14.7200 2137.3866
14.7300 2220.9992
14.7400 2117.7164
14.7500 2192.2420
14.7600 2247.7144
14.7700 2048.6330
14.7800 1847.3258
14.7900 1768.6852
